# m	up	down	# mcstas, standard reflectivity
MC=6
0	0.99	0.99
0.025	0.99	0.99
0.05	0.99	0.99
0.075	0.99	0.99
0.1	0.99	0.99
0.125	0.99	0.99
0.15	0.99	0.99
0.175	0.99	0.99
0.2	0.99	0.99
0.225	0.99	0.99
0.25	0.99	0.99
0.275	0.99	0.99
0.3	0.99	0.99
0.325	0.99	0.99
0.35	0.99	0.99
0.375	0.99	0.99
0.4	0.99	0.99
0.425	0.99	0.99
0.45	0.99	0.99
0.475	0.99	0.99
0.5	0.99	0.99
0.525	0.99	0.99
0.55	0.99	0.99
0.575	0.99	0.99
0.6	0.99	0.99
0.625	0.99	0.99
0.65	0.99	0.99
0.675	0.99	0.99
0.7	0.99	0.99
0.725	0.99	0.99
0.75	0.99	0.99
0.775	0.99	0.99
0.8	0.99	0.99
0.825	0.99	0.99
0.85	0.99	0.99
0.875	0.99	0.99
0.9	0.99	0.99
0.925	0.99	0.99
0.95	0.99	0.99
0.975	0.99	0.99
1	0.99	0.99
1.025	0.986498	0.986498
1.05	0.983009	0.983009
1.075	0.979532	0.979532
1.1	0.976069	0.976069
1.125	0.972617	0.972617
1.15	0.969179	0.969179
1.175	0.965753	0.965753
1.2	0.96234	0.96234
1.225	0.958939	0.958939
1.25	0.955551	0.955551
1.275	0.952176	0.952176
1.3	0.948813	0.948813
1.325	0.945463	0.945463
1.35	0.942126	0.942126
1.375	0.938802	0.938802
1.4	0.93549	0.93549
1.425	0.93219	0.93219
1.45	0.928904	0.928904
1.475	0.92563	0.92563
1.5	0.922368	0.922368
1.525	0.91912	0.91912
1.55	0.915884	0.915884
1.575	0.912661	0.912661
1.6	0.90945	0.90945
1.625	0.906252	0.906252
1.65	0.903067	0.903067
1.675	0.899894	0.899894
1.7	0.896734	0.896734
1.725	0.893586	0.893586
1.75	0.890452	0.890452
1.775	0.88733	0.88733
1.8	0.88422	0.88422
1.825	0.881124	0.881124
1.85	0.87804	0.87804
1.875	0.874968	0.874968
1.9	0.871909	0.871909
1.925	0.868863	0.868863
1.95	0.86583	0.86583
1.975	0.862809	0.862809
2	0.859801	0.859801
2.025	0.856806	0.856806
2.05	0.853823	0.853823
2.075	0.850853	0.850853
2.1	0.847895	0.847895
2.125	0.844951	0.844951
2.15	0.842018	0.842018
2.175	0.839099	0.839099
2.2	0.836192	0.836192
2.225	0.833298	0.833298
2.25	0.830416	0.830416
2.275	0.827548	0.827548
2.3	0.824691	0.824691
2.325	0.821848	0.821848
2.35	0.819017	0.819017
2.375	0.816199	0.816199
2.4	0.813393	0.813393
2.425	0.810601	0.810601
2.45	0.80782	0.80782
2.475	0.805053	0.805053
2.5	0.802298	0.802298
2.525	0.799556	0.799556
2.55	0.796826	0.796826
2.575	0.794109	0.794109
2.6	0.791405	0.791405
2.625	0.788713	0.788713
2.65	0.786034	0.786034
2.675	0.783368	0.783368
2.7	0.780715	0.780715
2.725	0.778074	0.778074
2.75	0.775445	0.775445
2.775	0.77283	0.77283
2.8	0.770227	0.770227
2.825	0.767637	0.767637
2.85	0.765059	0.765059
2.875	0.762494	0.762494
2.9	0.759942	0.759942
2.925	0.757402	0.757402
2.95	0.754875	0.754875
2.975	0.752361	0.752361
3	0.749859	0.749859
3.025	0.74737	0.74737
3.05	0.744894	0.744894
3.075	0.74243	0.74243
3.1	0.739979	0.739979
3.125	0.73754	0.73754
3.15	0.735115	0.735115
3.175	0.732702	0.732702
3.2	0.730301	0.730301
3.225	0.727914	0.727914
3.25	0.725538	0.725538
3.275	0.723176	0.723176
3.3	0.720826	0.720826
3.325	0.718489	0.718489
3.35	0.716165	0.716165
3.375	0.713853	0.713853
3.4	0.711554	0.711554
3.425	0.709267	0.709267
3.45	0.706994	0.706994
3.475	0.704733	0.704733
3.5	0.702484	0.702484
3.525	0.700248	0.700248
3.55	0.698025	0.698025
3.575	0.695815	0.695815
3.6	0.693617	0.693617
3.625	0.691432	0.691432
3.65	0.689259	0.689259
3.675	0.687099	0.687099
3.7	0.684952	0.684952
3.725	0.682818	0.682818
3.75	0.680696	0.680696
3.775	0.678587	0.678587
3.8	0.67649	0.67649
3.825	0.674406	0.674406
3.85	0.672335	0.672335
3.875	0.670276	0.670276
3.9	0.66823	0.66823
3.925	0.666197	0.666197
3.95	0.664177	0.664177
3.975	0.662169	0.662169
4	0.660173	0.660173
4.025	0.658191	0.658191
4.05	0.656221	0.656221
4.075	0.654264	0.654264
4.1	0.652319	0.652319
4.125	0.650387	0.650387
4.15	0.648468	0.648468
4.175	0.646561	0.646561
4.2	0.644667	0.644667
4.225	0.642786	0.642786
4.25	0.640917	0.640917
4.275	0.639061	0.639061
4.3	0.637218	0.637218
4.325	0.635387	0.635387
4.35	0.633569	0.633569
4.375	0.631764	0.631764
4.4	0.629971	0.629971
4.425	0.628191	0.628191
4.45	0.626424	0.626424
4.475	0.624669	0.624669
4.5	0.622927	0.622927
4.525	0.621198	0.621198
4.55	0.619481	0.619481
4.575	0.617777	0.617777
4.6	0.616085	0.616085
4.625	0.614407	0.614407
4.65	0.612741	0.612741
4.675	0.611087	0.611087
4.7	0.609446	0.609446
4.725	0.607818	0.607818
4.75	0.606203	0.606203
4.775	0.6046	0.6046
4.8	0.60301	0.60301
4.825	0.601433	0.601433
4.85	0.599868	0.599868
4.875	0.598316	0.598316
4.9	0.596776	0.596776
4.925	0.595249	0.595249
4.95	0.593735	0.593735
4.975	0.592234	0.592234
5	0.590745	0.590745
5.025	0.589269	0.589269
5.05	0.587805	0.587805
5.075	0.586354	0.586354
5.1	0.584916	0.584916
5.125	0.58349	0.58349
5.15	0.582078	0.582078
5.175	0.580677	0.580677
5.2	0.57929	0.57929
5.225	0.577915	0.577915
5.25	0.576553	0.576553
5.275	0.575203	0.575203
5.3	0.573866	0.573866
5.325	0.572542	0.572542
5.35	0.57123	0.57123
5.375	0.569931	0.569931
5.4	0.568645	0.568645
5.425	0.567372	0.567372
5.45	0.566111	0.566111
5.475	0.564862	0.564862
5.5	0.563627	0.563627
5.525	0.562404	0.562404
5.55	0.561193	0.561193
5.575	0.559996	0.559996
5.6	0.558811	0.558811
5.625	0.557638	0.557638
5.65	0.556479	0.556479
5.675	0.555332	0.555332
5.7	0.554197	0.554197
5.725	0.553076	0.553076
5.75	0.551967	0.551967
5.775	0.55087	0.55087
5.8	0.549786	0.549786
5.825	0.548714	0.548714
5.85	0.547652	0.547652
5.875	0.546596	0.546596
5.9	0.545531	0.545531
5.925	0.544413	0.544413
5.95	0.543109	0.543109
5.975	0.541214	0.541214
6	0.537512	0.537512
6.025	0.528436	0.528436
6.05	0.504261	0.504261
6.075	0.443787	0.443787
6.1	0.325556	0.325556
6.125	0.179746	0.179746
6.15	0.0759645	0.0759645
6.175	0.0275017	0.0275017
6.2	0.00933077	0.00933077
6.225	0.00309277	0.00309277
6.25	0.00101708	0.00101708
6.275	0.000333607	0.000333607
6.3	0.000109333	0.000109333
6.325	0	0
6.35	0	0
6.375	0	0
