# m	up	down	# mcstas, standard reflectivity
MC=5.5
0	0.99	0.99
0.025	0.99	0.99
0.05	0.99	0.99
0.075	0.99	0.99
0.1	0.99	0.99
0.125	0.99	0.99
0.15	0.99	0.99
0.175	0.99	0.99
0.2	0.99	0.99
0.225	0.99	0.99
0.25	0.99	0.99
0.275	0.99	0.99
0.3	0.99	0.99
0.325	0.99	0.99
0.35	0.99	0.99
0.375	0.99	0.99
0.4	0.99	0.99
0.425	0.99	0.99
0.45	0.99	0.99
0.475	0.99	0.99
0.5	0.99	0.99
0.525	0.99	0.99
0.55	0.99	0.99
0.575	0.99	0.99
0.6	0.99	0.99
0.625	0.99	0.99
0.65	0.99	0.99
0.675	0.99	0.99
0.7	0.99	0.99
0.725	0.99	0.99
0.75	0.99	0.99
0.775	0.99	0.99
0.8	0.99	0.99
0.825	0.99	0.99
0.85	0.99	0.99
0.875	0.99	0.99
0.9	0.99	0.99
0.925	0.99	0.99
0.95	0.99	0.99
0.975	0.99	0.99
1	0.99	0.99
1.025	0.98656	0.98656
1.05	0.983136	0.983136
1.075	0.979726	0.979726
1.1	0.976331	0.976331
1.125	0.972951	0.972951
1.15	0.969586	0.969586
1.175	0.966236	0.966236
1.2	0.9629	0.9629
1.225	0.95958	0.95958
1.25	0.956274	0.956274
1.275	0.952983	0.952983
1.3	0.949707	0.949707
1.325	0.946446	0.946446
1.35	0.9432	0.9432
1.375	0.939969	0.939969
1.4	0.936752	0.936752
1.425	0.933551	0.933551
1.45	0.930364	0.930364
1.475	0.927192	0.927192
1.5	0.924035	0.924035
1.525	0.920893	0.920893
1.55	0.917766	0.917766
1.575	0.914653	0.914653
1.6	0.911556	0.911556
1.625	0.908473	0.908473
1.65	0.905406	0.905406
1.675	0.902353	0.902353
1.7	0.899315	0.899315
1.725	0.896291	0.896291
1.75	0.893283	0.893283
1.775	0.89029	0.89029
1.8	0.887311	0.887311
1.825	0.884348	0.884348
1.85	0.881399	0.881399
1.875	0.878465	0.878465
1.9	0.875546	0.875546
1.925	0.872642	0.872642
1.95	0.869752	0.869752
1.975	0.866878	0.866878
2	0.864018	0.864018
2.025	0.861173	0.861173
2.05	0.858344	0.858344
2.075	0.855529	0.855529
2.1	0.852729	0.852729
2.125	0.849943	0.849943
2.15	0.847173	0.847173
2.175	0.844417	0.844417
2.2	0.841677	0.841677
2.225	0.838951	0.838951
2.25	0.83624	0.83624
2.275	0.833544	0.833544
2.3	0.830863	0.830863
2.325	0.828197	0.828197
2.35	0.825545	0.825545
2.375	0.822909	0.822909
2.4	0.820287	0.820287
2.425	0.81768	0.81768
2.45	0.815088	0.815088
2.475	0.812511	0.812511
2.5	0.809949	0.809949
2.525	0.807402	0.807402
2.55	0.804869	0.804869
2.575	0.802352	0.802352
2.6	0.799849	0.799849
2.625	0.797361	0.797361
2.65	0.794888	0.794888
2.675	0.79243	0.79243
2.7	0.789987	0.789987
2.725	0.787558	0.787558
2.75	0.785145	0.785145
2.775	0.782746	0.782746
2.8	0.780363	0.780363
2.825	0.777994	0.777994
2.85	0.77564	0.77564
2.875	0.773301	0.773301
2.9	0.770976	0.770976
2.925	0.768667	0.768667
2.95	0.766372	0.766372
2.975	0.764093	0.764093
3	0.761828	0.761828
3.025	0.759578	0.759578
3.05	0.757343	0.757343
3.075	0.755123	0.755123
3.1	0.752917	0.752917
3.125	0.750727	0.750727
3.15	0.748551	0.748551
3.175	0.746391	0.746391
3.2	0.744245	0.744245
3.225	0.742114	0.742114
3.25	0.739998	0.739998
3.275	0.737896	0.737896
3.3	0.73581	0.73581
3.325	0.733739	0.733739
3.35	0.731682	0.731682
3.375	0.72964	0.72964
3.4	0.727613	0.727613
3.425	0.725601	0.725601
3.45	0.723604	0.723604
3.475	0.721622	0.721622
3.5	0.719655	0.719655
3.525	0.717702	0.717702
3.55	0.715764	0.715764
3.575	0.713842	0.713842
3.6	0.711934	0.711934
3.625	0.710041	0.710041
3.65	0.708162	0.708162
3.675	0.706299	0.706299
3.7	0.704451	0.704451
3.725	0.702617	0.702617
3.75	0.700798	0.700798
3.775	0.698994	0.698994
3.8	0.697206	0.697206
3.825	0.695431	0.695431
3.85	0.693672	0.693672
3.875	0.691928	0.691928
3.9	0.690198	0.690198
3.925	0.688484	0.688484
3.95	0.686784	0.686784
3.975	0.685099	0.685099
4	0.683429	0.683429
4.025	0.681774	0.681774
4.05	0.680134	0.680134
4.075	0.678508	0.678508
4.1	0.676898	0.676898
4.125	0.675302	0.675302
4.15	0.673721	0.673721
4.175	0.672155	0.672155
4.2	0.670604	0.670604
4.225	0.669068	0.669068
4.25	0.667547	0.667547
4.275	0.66604	0.66604
4.3	0.664549	0.664549
4.325	0.663072	0.663072
4.35	0.66161	0.66161
4.375	0.660163	0.660163
4.4	0.658731	0.658731
4.425	0.657314	0.657314
4.45	0.655912	0.655912
4.475	0.654524	0.654524
4.5	0.653152	0.653152
4.525	0.651794	0.651794
4.55	0.650451	0.650451
4.575	0.649123	0.649123
4.6	0.64781	0.64781
4.625	0.646511	0.646511
4.65	0.645228	0.645228
4.675	0.64396	0.64396
4.7	0.642706	0.642706
4.725	0.641467	0.641467
4.75	0.640243	0.640243
4.775	0.639034	0.639034
4.8	0.63784	0.63784
4.825	0.636661	0.636661
4.85	0.635496	0.635496
4.875	0.634347	0.634347
4.9	0.633212	0.633212
4.925	0.632092	0.632092
4.95	0.630987	0.630987
4.975	0.629897	0.629897
5	0.628822	0.628822
5.025	0.627761	0.627761
5.05	0.626716	0.626716
5.075	0.625685	0.625685
5.1	0.62467	0.62467
5.125	0.623669	0.623669
5.15	0.622683	0.622683
5.175	0.621712	0.621712
5.2	0.620755	0.620755
5.225	0.619814	0.619814
5.25	0.618887	0.618887
5.275	0.617975	0.617975
5.3	0.617077	0.617077
5.325	0.616193	0.616193
5.35	0.615318	0.615318
5.375	0.614444	0.614444
5.4	0.613547	0.613547
5.425	0.61256	0.61256
5.45	0.611303	0.611303
5.475	0.609276	0.609276
5.5	0.605132	0.605132
5.525	0.595304	0.595304
5.55	0.570987	0.570987
5.575	0.514161	0.514161
5.6	0.404077	0.404077
5.625	0.254368	0.254368
5.65	0.125924	0.125924
5.675	0.0526683	0.0526683
5.7	0.0202361	0.0202361
5.725	0.00750448	0.00750448
5.75	0.0027455	0.0027455
5.775	0.000999407	0.000999407
5.8	0.000363139	0.000363139
5.825	0.000131863	0.000131863
5.85	0	0
5.875	0	0
5.9	0	0
5.925	0	0
5.95	0	0
5.975	0	0
6	0	0
6.025	0	0
6.05	0	0
6.075	0	0
6.1	0	0
6.125	0	0
6.15	0	0
6.175	0	0
6.2	0	0
6.225	0	0
6.25	0	0
6.275	0	0
6.3	0	0
6.325	0	0
6.35	0	0
6.375	0	0
